SpectraSuite Data File
++++++++++++++++++++++++++++++++++++
Date: Tue Jun 16 17:02:43 CEST 2015
User: root
Dark Spectrum Present: No
Reference Spectrum Present: No
Number of Sampled Component Spectra: 1
Spectrometers: USB2G14742
Integration Time (usec): 3000 (USB2G14742)
Spectra Averaged: 5 (USB2G14742)
Boxcar Smoothing: 0 (USB2G14742)
Correct for Electrical Dark: Yes (USB2G14742)
Strobe/Lamp Enabled: No (USB2G14742)
Correct for Detector Non-linearity: Yes (USB2G14742)
Correct for Stray Light: No (USB2G14742)
Number of Pixels in Processed Spectrum: 2048
>>>>>Begin Processed Spectral Data<<<<<
339.47	-6.86
339.86	-6.86
340.24	-5.54
340.63	-4.45
341.01	-3.57
341.39	-2.70
341.78	-0.51
342.16	-0.94
342.55	0.15
342.93	1.25
343.32	1.25
343.70	1.90
344.09	1.25
344.47	1.46
344.85	1.25
345.24	2.34
345.62	3.65
346.01	2.56
346.39	1.46
346.77	0.37
347.16	1.90
347.54	2.78
347.93	4.09
348.31	1.68
348.69	1.68
349.08	0.81
349.46	0.37
349.84	1.90
350.23	1.68
350.61	1.90
350.99	2.34
351.38	0.15
351.76	1.68
352.14	1.90
352.53	3.22
352.91	2.78
353.29	2.78
353.68	3.00
354.06	1.68
354.44	2.34
354.83	3.00
355.21	2.78
355.59	1.46
355.97	1.90
356.36	2.34
356.74	2.56
357.12	3.43
357.51	3.22
357.89	2.12
358.27	3.00
358.65	3.22
359.04	3.43
359.42	3.43
359.80	1.90
360.18	3.43
360.57	3.65
360.95	3.22
361.33	2.78
361.71	2.34
362.10	2.78
362.48	3.00
362.86	2.78
363.24	1.90
363.62	4.09
364.01	5.18
364.39	3.22
364.77	4.09
365.15	4.31
365.53	3.22
365.91	2.34
366.30	3.43
366.68	5.40
367.06	4.53
367.44	4.75
367.82	4.53
368.20	3.43
368.59	3.00
368.97	3.87
369.35	2.78
369.73	3.65
370.11	3.65
370.49	4.53
370.87	4.31
371.25	3.43
371.64	3.43
372.02	4.09
372.40	3.43
372.78	4.75
373.16	3.87
373.54	4.31
373.92	4.75
374.30	4.53
374.68	5.62
375.06	5.18
375.44	5.40
375.82	5.84
376.21	6.06
376.59	4.53
376.97	4.75
377.35	4.97
377.73	4.97
378.11	6.06
378.49	6.93
378.87	5.84
379.25	5.84
379.63	6.06
380.01	6.06
380.39	5.62
380.77	6.28
381.15	7.15
381.53	7.59
381.91	7.81
382.29	7.15
382.67	6.72
383.05	8.25
383.43	7.59
383.81	6.72
384.19	6.50
384.57	7.81
384.95	8.03
385.33	8.46
385.71	10.00
386.08	7.15
386.46	7.81
386.84	8.68
387.22	8.68
387.60	9.12
387.98	8.46
388.36	8.03
388.74	7.37
389.12	8.68
389.50	8.90
389.88	8.03
390.26	8.68
390.63	8.90
391.01	9.34
391.39	11.52
391.77	9.78
392.15	7.59
392.53	9.78
392.91	9.56
393.29	7.81
393.66	9.12
394.04	10.43
394.42	10.43
394.80	9.56
395.18	9.12
395.56	10.21
395.93	8.68
396.31	10.00
396.69	9.34
397.07	10.00
397.45	9.78
397.83	10.00
398.20	10.65
398.58	13.05
398.96	13.05
399.34	14.80
399.72	14.15
400.09	12.62
400.47	14.80
400.85	14.37
401.23	15.24
401.60	16.11
401.98	18.51
402.36	15.46
402.74	16.11
403.11	16.55
403.49	17.20
403.87	16.33
404.25	18.95
404.62	17.64
405.00	16.99
405.38	17.42
405.75	18.30
406.13	18.30
406.51	17.20
406.89	17.20
407.26	17.20
407.64	18.95
408.02	18.08
408.39	19.82
408.77	20.04
409.15	19.39
409.52	20.04
409.90	19.39
410.28	18.30
410.65	20.04
411.03	21.57
411.41	22.88
411.78	23.31
412.16	24.62
412.54	23.10
412.91	22.44
413.29	23.75
413.66	25.06
414.04	24.84
414.42	23.31
414.79	22.66
415.17	25.06
415.54	25.71
415.92	25.06
416.30	25.50
416.67	24.84
417.05	24.62
417.42	25.50
417.80	26.37
418.18	25.06
418.55	25.50
418.93	24.41
419.30	27.02
419.68	24.84
420.05	28.55
420.43	27.46
420.80	27.02
421.18	29.20
421.55	26.37
421.93	27.46
422.30	28.33
422.68	28.55
423.06	30.29
423.43	29.42
423.81	29.42
424.18	28.77
424.56	30.73
424.93	30.73
425.30	30.73
425.68	30.07
426.05	29.42
426.43	32.03
426.80	32.47
427.18	33.99
427.55	30.51
427.93	32.90
428.30	30.94
428.68	29.20
429.05	31.60
429.43	30.73
429.80	30.73
430.17	29.20
430.55	25.71
430.92	27.46
431.30	31.38
431.67	34.21
432.04	35.08
432.42	32.47
432.79	35.74
433.17	37.91
433.54	36.82
433.91	36.82
434.29	38.35
434.66	40.09
435.03	39.00
435.41	37.48
435.78	40.09
436.16	42.70
436.53	42.48
436.90	42.26
437.28	41.83
437.65	39.65
438.02	40.52
438.40	38.78
438.77	41.61
439.14	41.83
439.52	43.13
439.89	42.92
440.26	41.83
440.63	45.53
441.01	45.74
441.38	48.57
441.75	49.44
442.13	49.44
442.50	50.31
442.87	49.65
443.24	49.87
443.62	50.96
443.99	49.87
444.36	51.39
444.73	49.87
445.11	50.31
445.48	46.83
445.85	50.96
446.22	49.65
446.60	50.96
446.97	50.31
447.34	51.61
447.71	53.13
448.09	55.73
448.46	55.08
448.83	55.95
449.20	54.65
449.57	55.52
449.95	58.56
450.32	57.69
450.69	56.60
451.06	59.42
451.43	62.46
451.80	59.64
452.18	57.69
452.55	55.30
452.92	54.87
453.29	59.21
453.66	56.82
454.03	60.51
454.40	63.98
454.78	61.38
455.15	59.42
455.52	63.33
455.89	62.03
456.26	62.46
456.63	62.68
457.00	61.16
457.37	62.89
457.74	59.42
458.12	62.89
458.49	57.25
458.86	63.54
459.23	67.01
459.60	61.16
459.97	63.54
460.34	65.28
460.71	66.80
461.08	66.58
461.45	67.88
461.82	70.48
462.19	67.45
462.56	66.15
462.93	69.61
463.30	66.15
463.67	61.59
464.04	66.15
464.41	65.06
464.78	64.41
465.15	65.93
465.52	67.23
465.89	65.49
466.26	68.31
466.63	70.05
467.00	66.80
467.37	67.45
467.74	68.75
468.11	66.80
468.48	70.26
468.85	71.34
469.22	71.34
469.59	70.69
469.96	70.69
470.33	70.48
470.70	73.08
471.07	74.38
471.44	73.73
471.81	75.03
472.18	76.54
472.55	78.05
472.91	76.11
473.28	69.40
473.65	74.59
474.02	76.54
474.39	76.97
474.76	80.00
475.13	81.52
475.50	80.43
475.87	80.22
476.23	77.41
476.60	79.35
476.97	81.08
477.34	85.84
477.71	85.62
478.08	84.97
478.45	84.11
478.81	87.35
479.18	85.62
479.55	89.51
479.92	88.86
480.29	94.26
480.65	90.81
481.02	90.16
481.39	87.14
481.76	90.38
482.13	91.02
482.49	93.18
482.86	93.62
483.23	92.54
483.60	91.89
483.97	90.38
484.33	89.08
484.70	91.67
485.07	92.32
485.44	90.38
485.80	85.84
486.17	81.73
486.54	81.30
486.91	82.60
487.27	84.76
487.64	90.16
488.01	93.83
488.38	94.26
488.74	95.13
489.11	93.83
489.48	96.64
489.84	99.44
490.21	99.66
490.58	101.38
490.94	100.74
491.31	100.09
491.68	96.42
492.04	97.50
492.41	98.36
492.78	102.46
493.14	103.11
493.51	103.75
493.88	102.03
494.24	102.03
494.61	106.99
494.98	101.81
495.34	104.19
495.71	107.85
496.08	104.40
496.44	110.43
496.81	108.06
497.17	108.71
497.54	104.62
497.91	103.54
498.27	104.40
498.64	103.32
499.00	104.19
499.37	106.99
499.74	108.71
500.10	107.20
500.47	104.19
500.83	106.34
501.20	105.26
501.56	106.13
501.93	107.42
502.30	105.91
502.66	110.65
503.03	109.36
503.39	110.22
503.76	112.37
504.12	111.51
504.49	112.80
504.85	114.53
505.22	116.68
505.58	120.98
505.95	121.20
506.31	120.12
506.68	120.98
507.04	122.49
507.41	123.35
507.77	125.71
508.14	125.28
508.50	127.00
508.87	123.35
509.23	130.44
509.59	133.87
509.96	131.08
510.32	133.23
510.69	138.17
511.05	135.16
511.42	143.74
511.78	143.74
512.15	146.74
512.51	144.82
512.87	145.46
513.24	146.32
513.60	147.39
513.97	148.24
514.33	153.39
514.69	152.53
515.06	155.96
515.42	158.95
515.79	164.73
516.15	157.24
516.51	152.32
516.88	151.46
517.24	150.82
517.60	156.38
517.97	160.45
518.33	160.66
518.69	163.66
519.06	179.04
519.42	183.53
519.78	183.95
520.15	191.84
520.51	190.99
520.87	195.68
521.24	200.36
521.60	204.41
521.96	215.68
522.33	208.24
522.69	212.70
523.05	219.08
523.41	221.20
523.78	229.90
524.14	233.72
524.50	232.87
524.86	235.63
525.23	241.35
525.59	238.81
525.95	238.17
526.32	233.72
526.68	233.30
527.04	233.30
527.40	241.99
527.76	249.61
528.13	258.28
528.49	262.72
528.85	269.70
529.21	269.70
529.57	271.17
529.94	275.18
530.30	278.14
530.66	281.73
531.02	286.15
531.38	287.63
531.75	285.31
532.11	282.15
532.47	282.36
532.83	281.94
533.19	279.83
533.55	289.95
533.92	288.68
534.28	293.32
534.64	296.05
535.00	303.21
535.36	304.68
535.72	307.21
536.08	308.47
536.44	295.63
536.81	303.00
537.17	295.84
537.53	299.84
537.89	299.42
538.25	307.63
538.61	304.26
538.97	306.37
539.33	297.32
539.69	298.37
540.05	288.89
540.41	292.68
540.78	291.00
541.14	289.52
541.50	299.42
541.86	295.63
542.22	303.63
542.58	302.37
542.94	300.69
543.30	302.37
543.66	306.37
544.02	306.37
544.38	306.58
544.74	310.36
545.10	308.68
545.46	303.21
545.82	308.89
546.18	303.63
546.54	304.26
546.90	306.37
547.26	305.10
547.62	302.16
547.98	307.63
548.34	306.37
548.70	307.21
549.06	305.74
549.42	308.47
549.78	308.26
550.13	312.25
550.49	308.47
550.85	302.16
551.21	306.37
551.57	309.10
551.93	308.26
552.29	302.58
552.65	306.58
553.01	302.58
553.37	302.16
553.73	303.84
554.09	306.37
554.44	303.63
554.80	305.74
555.16	307.21
555.52	301.11
555.88	301.74
556.24	299.63
556.60	295.63
556.95	291.42
557.31	286.36
557.67	286.79
558.03	287.63
558.39	282.99
558.75	279.83
559.10	272.02
559.46	273.92
559.82	273.29
560.18	277.72
560.54	281.94
560.90	272.44
561.25	272.44
561.61	262.51
561.97	267.37
562.33	267.16
562.68	269.91
563.04	264.63
563.40	265.68
563.76	262.94
564.12	258.28
564.47	259.13
564.83	263.57
565.19	255.11
565.55	253.00
565.90	253.63
566.26	243.89
566.62	243.26
566.97	244.74
567.33	244.53
567.69	242.20
568.05	236.69
568.40	235.42
568.76	233.72
569.12	232.02
569.47	225.23
569.83	226.51
570.19	225.23
570.54	216.95
570.90	214.61
571.26	214.40
571.61	213.98
571.97	216.95
572.33	213.34
572.68	212.06
573.04	209.30
573.40	206.75
573.75	212.06
574.11	207.38
574.47	200.79
574.82	203.13
575.18	197.38
575.53	198.66
575.89	194.61
576.25	192.48
576.60	190.99
576.96	191.41
577.31	188.64
577.67	187.36
578.03	188.00
578.38	181.39
578.74	183.31
579.09	184.38
579.45	184.80
579.80	185.02
580.16	183.74
580.51	185.87
580.87	173.71
581.23	179.26
581.58	173.06
581.94	179.90
582.29	179.04
582.65	179.47
583.00	177.55
583.36	176.70
583.71	176.91
584.07	174.99
584.42	173.49
584.78	173.92
585.13	172.00
585.49	167.51
585.84	164.51
586.20	161.73
586.55	166.01
586.91	159.59
587.26	160.02
587.61	160.02
587.97	154.89
588.32	147.39
588.68	146.10
589.03	137.52
589.39	133.44
589.74	137.52
590.09	134.52
590.45	139.45
590.80	138.60
591.16	135.38
591.51	140.10
591.86	139.45
592.22	138.17
592.57	137.74
592.93	142.24
593.28	140.53
593.63	136.88
593.99	138.17
594.34	133.66
594.69	137.74
595.05	136.45
595.40	133.23
595.76	136.88
596.11	138.81
596.46	136.88
596.82	135.38
597.17	140.31
597.52	135.16
597.87	135.38
598.23	137.95
598.58	137.95
598.93	137.09
599.29	138.60
599.64	138.81
599.99	134.73
600.35	137.74
600.70	136.02
601.05	132.37
601.40	134.73
601.76	135.16
602.11	132.16
602.46	130.87
602.81	129.15
603.17	134.52
603.52	134.95
603.87	130.65
604.22	135.81
604.58	133.44
604.93	130.22
605.28	131.51
605.63	134.30
605.98	133.01
606.34	126.78
606.69	126.14
607.04	124.64
607.39	132.80
607.74	132.16
608.10	126.57
608.45	125.93
608.80	122.92
609.15	123.56
609.50	123.13
609.85	122.49
610.21	118.83
610.56	122.70
610.91	121.84
611.26	115.39
611.61	116.89
611.96	114.96
612.31	117.97
612.67	111.08
613.02	113.23
613.37	111.08
613.72	111.51
614.07	111.51
614.42	110.43
614.77	108.50
615.12	111.08
615.47	105.69
615.82	105.48
616.17	103.32
616.53	102.03
616.88	103.32
617.23	101.81
617.58	104.83
617.93	103.32
618.28	107.42
618.63	103.32
618.98	101.17
619.33	99.66
619.68	102.46
620.03	103.11
620.38	100.95
620.73	101.60
621.08	101.38
621.43	97.72
621.78	101.38
622.13	97.50
622.48	100.30
622.83	94.05
623.18	96.85
623.53	93.18
623.88	96.21
624.23	95.13
624.58	96.21
624.93	93.40
625.28	91.24
625.63	92.32
625.98	90.59
626.32	92.97
626.67	91.24
627.02	91.46
627.37	92.54
627.72	83.89
628.07	90.59
628.42	90.38
628.77	89.51
629.12	88.65
629.47	87.57
629.82	88.00
630.16	88.00
630.51	85.19
630.86	89.51
631.21	86.70
631.56	86.70
631.91	88.00
632.26	88.22
632.60	89.30
632.95	84.11
633.30	87.57
633.65	89.51
634.00	86.70
634.35	85.62
634.69	86.70
635.04	86.06
635.39	86.27
635.74	87.78
636.09	85.41
636.43	82.38
636.78	84.33
637.13	82.38
637.48	85.19
637.83	83.89
638.17	84.33
638.52	85.19
638.87	82.81
639.22	83.25
639.56	80.87
639.91	80.43
640.26	77.19
640.61	80.65
640.95	73.94
641.30	76.54
641.65	75.89
642.00	78.27
642.34	75.46
642.69	74.16
643.04	76.54
643.38	71.56
643.73	74.16
644.08	71.78
644.43	69.83
644.77	70.69
645.12	68.53
645.47	65.93
645.81	67.45
646.16	63.54
646.51	64.19
646.85	63.76
647.20	59.64
647.54	62.46
647.89	60.51
648.24	58.12
648.58	59.86
648.93	56.17
649.28	55.73
649.62	55.52
649.97	57.69
650.31	60.07
650.66	55.08
651.01	57.25
651.35	57.69
651.70	55.73
652.04	52.26
652.39	56.82
652.74	59.64
653.08	55.52
653.43	57.25
653.77	56.17
654.12	57.25
654.46	51.83
654.81	56.60
655.15	56.17
655.50	50.31
655.85	47.26
656.19	47.70
656.54	46.61
656.88	48.35
657.23	50.74
657.57	47.70
657.92	49.22
658.26	50.96
658.61	49.87
658.95	52.91
659.30	50.74
659.64	50.74
659.98	49.00
660.33	49.00
660.67	50.52
661.02	49.00
661.36	47.48
661.71	48.57
662.05	47.26
662.40	45.53
662.74	47.92
663.09	47.92
663.43	46.18
663.77	45.09
664.12	47.05
664.46	45.74
664.81	45.96
665.15	44.22
665.49	44.87
665.84	44.22
666.18	43.79
666.53	42.48
666.87	43.35
667.21	43.57
667.56	41.83
667.90	40.09
668.24	43.13
668.59	42.48
668.93	42.70
669.27	42.70
669.62	40.74
669.96	43.13
670.30	43.79
670.65	44.22
670.99	39.22
671.33	40.74
671.68	40.74
672.02	40.31
672.36	40.09
672.71	42.26
673.05	39.00
673.39	38.57
673.73	39.44
674.08	39.65
674.42	40.74
674.76	40.96
675.11	39.87
675.45	38.78
675.79	40.74
676.13	38.57
676.48	40.74
676.82	39.22
677.16	39.44
677.50	39.00
677.84	39.00
678.19	40.74
678.53	42.70
678.87	41.39
679.21	38.35
679.55	39.00
679.90	40.09
680.24	40.74
680.58	39.44
680.92	39.87
681.26	39.65
681.61	40.09
681.95	42.05
682.29	40.09
682.63	39.87
682.97	40.96
683.31	41.39
683.65	41.61
684.00	42.70
684.34	39.00
684.68	40.52
685.02	41.39
685.36	44.00
685.70	43.13
686.04	43.79
686.38	40.31
686.73	38.78
687.07	35.95
687.41	36.17
687.75	36.61
688.09	40.09
688.43	38.57
688.77	38.78
689.11	39.65
689.45	43.13
689.79	44.66
690.13	43.13
690.47	46.61
690.81	47.48
691.15	49.22
691.49	51.61
691.83	50.09
692.17	55.30
692.51	54.21
692.85	54.43
693.19	56.39
693.53	57.25
693.87	56.82
694.21	57.90
694.55	62.03
694.89	61.81
695.23	63.11
695.57	67.01
695.91	68.31
696.25	71.56
696.59	75.24
696.93	78.70
697.27	81.30
697.61	83.68
697.95	87.57
698.29	89.51
698.63	86.49
698.97	89.73
699.31	94.26
699.65	92.97
699.99	94.26
700.32	98.58
700.66	95.34
701.00	101.38
701.34	104.83
701.68	108.50
702.02	105.05
702.36	111.30
702.70	115.17
703.04	120.98
703.37	122.27
703.71	126.57
704.05	129.36
704.39	127.64
704.73	140.10
705.07	138.17
705.40	143.53
705.74	144.17
706.08	145.46
706.42	152.74
706.76	152.74
707.10	157.03
707.43	159.17
707.77	159.38
708.11	164.51
708.45	166.44
708.78	170.93
709.12	175.20
709.46	180.11
709.80	180.11
710.14	180.96
710.47	186.30
710.81	189.71
711.15	189.07
711.49	193.55
711.82	195.46
712.16	198.02
712.50	196.95
712.83	206.96
713.17	203.34
713.51	207.17
713.85	208.87
714.18	212.28
714.52	209.94
714.86	214.61
715.19	218.44
715.53	220.78
715.87	212.28
716.20	206.11
716.54	196.74
716.88	187.79
717.21	179.04
717.55	173.49
717.89	167.29
718.22	166.23
718.56	162.80
718.90	163.66
719.23	160.45
719.57	161.73
719.91	163.87
720.24	167.94
720.58	181.82
720.91	200.15
721.25	208.24
721.59	225.23
721.92	233.72
722.26	237.11
722.59	236.48
722.93	229.27
723.27	226.93
723.60	217.59
723.94	216.95
724.27	214.61
724.61	215.68
724.94	218.01
725.28	219.50
725.61	221.20
725.95	224.39
726.28	230.54
726.62	232.66
726.96	236.27
727.29	229.48
727.63	234.15
727.96	236.05
728.30	248.13
728.63	242.41
728.97	239.23
729.30	249.82
729.63	247.49
729.97	252.79
730.30	255.54
730.64	254.90
730.97	263.57
731.31	267.37
731.64	276.87
731.98	289.95
732.31	298.37
732.65	305.74
732.98	312.88
733.31	323.39
733.65	334.09
733.98	342.89
734.32	335.97
734.65	347.71
734.98	348.13
735.32	348.13
735.65	348.33
735.99	346.24
736.32	348.13
736.65	346.45
736.99	355.03
737.32	362.35
737.66	359.43
737.99	365.07
738.32	361.93
738.66	367.37
738.99	366.32
739.32	368.41
739.66	375.51
739.99	381.78
740.32	377.81
740.66	380.52
740.99	380.73
741.32	392.62
741.65	383.65
741.99	388.24
742.32	396.16
742.65	392.41
742.99	404.07
743.32	403.03
743.65	405.53
743.98	406.78
744.32	405.95
744.65	409.90
744.98	410.11
745.32	410.73
745.65	413.02
745.98	414.69
746.31	415.73
746.64	413.02
746.98	408.86
747.31	411.57
747.64	407.61
747.97	419.05
748.31	412.81
748.64	411.77
748.97	413.85
749.30	408.65
749.63	412.19
749.96	405.12
750.30	416.97
750.63	409.69
750.96	407.40
751.29	406.78
751.62	407.20
751.95	408.45
752.29	409.28
752.62	409.90
752.95	412.40
753.28	409.28
753.61	404.70
753.94	411.15
754.27	411.57
754.60	404.49
754.94	405.74
755.27	407.20
755.60	402.41
755.93	404.49
756.26	403.24
756.59	401.16
756.92	399.70
757.25	398.66
757.58	398.45
757.91	399.49
758.24	391.37
758.57	376.14
758.90	350.85
759.24	297.95
759.57	244.53
759.90	189.71
760.23	151.03
760.56	119.90
760.89	114.96
761.22	121.20
761.55	137.74
761.88	145.89
762.21	145.46
762.54	142.67
762.87	141.81
763.20	141.60
763.53	144.82
763.86	151.67
764.19	160.66
764.52	171.14
764.85	190.14
765.17	201.00
765.50	213.13
765.83	229.05
766.16	246.86
766.49	260.61
766.82	275.61
767.15	291.63
767.48	299.84
767.81	314.35
768.14	322.76
768.47	326.32
768.80	333.88
769.13	333.88
769.45	335.34
769.78	340.38
770.11	335.55
770.44	344.57
770.77	341.84
771.10	343.10
771.43	339.33
771.75	337.02
772.08	339.12
772.41	339.75
772.74	343.10
773.07	337.86
773.40	336.60
773.73	339.75
774.05	338.07
774.38	333.04
774.71	337.86
775.04	327.79
775.37	327.58
775.69	326.32
776.02	328.42
776.35	324.23
776.68	330.52
777.00	327.58
777.33	321.71
777.66	321.92
777.99	314.57
778.32	319.40
778.64	316.04
778.97	316.67
779.30	314.35
779.62	308.89
779.95	308.47
780.28	308.47
780.61	303.42
780.93	302.79
781.26	306.58
781.59	306.37
781.92	300.48
782.24	298.79
782.57	300.69
782.90	298.58
783.22	297.11
783.55	298.16
783.88	288.26
784.20	289.52
784.53	283.62
784.86	288.89
785.18	287.21
785.51	285.73
785.84	286.79
786.16	283.20
786.49	275.40
786.81	272.02
787.14	268.85
787.47	270.75
787.79	269.91
788.12	266.11
788.44	265.47
788.77	262.09
789.10	258.07
789.42	253.21
789.75	252.15
790.07	251.30
790.40	252.36
790.73	251.73
791.05	245.38
791.38	244.11
791.70	247.28
792.03	243.68
792.35	242.20
792.68	239.44
793.00	242.62
793.33	243.68
793.65	245.80
793.98	247.28
794.30	243.05
794.63	240.08
794.95	239.87
795.28	239.66
795.60	235.84
795.93	239.66
796.25	230.96
796.58	229.48
796.90	239.02
797.23	234.36
797.55	226.72
797.88	234.36
798.20	232.87
798.53	231.60
798.85	232.66
799.17	231.18
799.50	228.21
799.82	226.93
800.15	216.31
800.47	217.80
800.80	218.44
801.12	216.74
801.44	216.95
801.77	215.25
802.09	216.95
802.42	215.89
802.74	209.30
803.06	212.28
803.39	211.21
803.71	210.79
804.03	205.26
804.36	209.09
804.68	209.30
805.00	207.17
805.33	208.45
805.65	210.36
805.97	204.19
806.30	206.32
806.62	211.85
806.94	209.30
807.27	209.09
807.59	210.36
807.91	205.47
808.24	201.00
808.56	201.00
808.88	199.08
809.21	196.10
809.53	194.19
809.85	191.63
810.17	190.99
810.50	186.51
810.82	185.44
811.14	179.26
811.46	175.41
811.79	172.64
812.11	174.56
812.43	170.50
812.75	162.16
813.07	154.46
813.40	152.10
813.72	149.74
814.04	143.10
814.36	139.02
814.69	132.80
815.01	127.21
815.33	127.00
815.65	118.83
815.97	119.04
816.29	117.54
816.62	115.60
816.94	118.40
817.26	116.68
817.58	117.11
817.90	113.02
818.22	116.25
818.54	119.26
818.87	114.96
819.19	118.18
819.51	121.20
819.83	120.12
820.15	126.35
820.47	131.51
820.79	137.09
821.11	131.51
821.43	134.95
821.76	138.81
822.08	123.35
822.40	116.25
822.72	105.05
823.04	104.83
823.36	105.05
823.68	108.93
824.00	121.41
824.32	123.99
824.64	125.07
824.96	130.01
825.28	127.64
825.60	129.58
825.92	132.80
826.24	132.80
826.56	132.58
826.88	131.51
827.20	125.50
827.52	120.76
827.84	120.76
828.16	124.21
828.48	121.20
828.80	117.11
829.12	116.68
829.44	118.40
829.76	120.33
830.08	117.54
830.40	117.32
830.72	120.33
831.04	120.33
831.36	122.49
831.68	123.13
832.00	121.63
832.31	122.27
832.63	122.06
832.95	122.92
833.27	118.61
833.59	119.47
833.91	124.21
834.23	123.35
834.55	126.14
834.87	130.87
835.19	124.42
835.50	127.64
835.82	128.93
836.14	126.57
836.46	130.01
836.78	131.30
837.10	130.44
837.41	130.87
837.73	129.36
838.05	131.30
838.37	127.86
838.69	129.36
839.01	134.73
839.32	132.58
839.64	132.16
839.96	130.44
840.28	128.50
840.60	131.30
840.91	129.36
841.23	131.30
841.55	129.79
841.87	129.15
842.18	128.93
842.50	130.01
842.82	129.15
843.14	129.36
843.45	127.64
843.77	129.36
844.09	126.14
844.41	130.44
844.72	129.79
845.04	126.57
845.36	130.22
845.67	128.29
845.99	131.51
846.31	129.58
846.63	130.22
846.94	129.58
847.26	128.72
847.58	132.37
847.89	126.78
848.21	125.50
848.53	123.13
848.84	128.72
849.16	124.42
849.48	123.35
849.79	116.46
850.11	117.75
850.42	117.11
850.74	121.20
851.06	120.12
851.37	120.33
851.69	117.11
852.00	122.06
852.32	122.27
852.64	122.70
852.95	119.26
853.27	119.47
853.58	112.37
853.90	109.14
854.22	105.69
854.53	106.13
854.85	107.63
855.16	106.99
855.48	109.57
855.79	109.14
856.11	111.30
856.42	114.09
856.74	117.75
857.05	114.96
857.37	117.32
857.68	114.09
858.00	115.39
858.31	114.09
858.63	112.16
858.94	112.16
859.26	115.60
859.57	110.22
859.89	112.16
860.20	116.46
860.52	113.66
860.83	111.73
861.15	111.51
861.46	110.65
861.78	111.73
862.09	109.57
862.41	110.22
862.72	110.00
863.03	110.65
863.35	114.53
863.66	109.79
863.98	113.02
864.29	108.50
864.60	108.28
864.92	107.20
865.23	105.91
865.55	105.26
865.86	101.17
866.17	98.58
866.49	96.85
866.80	94.05
867.11	96.42
867.43	99.87
867.74	99.44
868.06	101.60
868.37	101.60
868.68	101.81
869.00	102.03
869.31	99.01
869.62	97.72
869.93	98.58
870.25	100.52
870.56	103.32
870.87	99.44
871.19	99.66
871.50	102.46
871.81	97.50
872.13	95.77
872.44	97.93
872.75	97.93
873.06	97.07
873.38	95.13
873.69	90.81
874.00	94.05
874.31	94.69
874.63	93.83
874.94	90.38
875.25	89.30
875.56	92.54
875.87	90.16
876.19	89.08
876.50	89.30
876.81	86.70
877.12	88.43
877.43	90.16
877.75	85.62
878.06	86.92
878.37	87.57
878.68	84.33
878.99	86.92
879.30	79.35
879.62	84.76
879.93	80.87
880.24	83.46
880.55	82.81
880.86	78.49
881.17	81.52
881.48	81.30
881.80	79.79
882.11	81.08
882.42	79.79
882.73	79.14
883.04	80.43
883.35	75.67
883.66	76.76
883.97	80.22
884.28	80.00
884.59	80.22
884.90	78.27
885.21	79.57
885.53	76.76
885.84	79.79
886.15	78.92
886.46	78.05
886.77	73.73
887.08	76.32
887.39	76.97
887.70	77.19
888.01	70.26
888.32	75.46
888.63	75.03
888.94	74.16
889.25	75.24
889.56	75.67
889.87	71.56
890.18	73.73
890.49	72.86
890.80	75.24
891.11	75.89
891.42	73.94
891.73	73.73
892.04	71.13
892.34	69.83
892.65	66.58
892.96	66.80
893.27	65.93
893.58	63.98
893.89	67.45
894.20	65.93
894.51	61.38
894.82	59.86
895.13	57.90
895.44	55.30
895.74	55.95
896.05	51.61
896.36	50.96
896.67	49.44
896.98	45.96
897.29	45.74
897.60	44.44
897.91	48.79
898.21	44.87
898.52	40.96
898.83	40.96
899.14	37.91
899.45	39.65
899.76	39.87
900.06	39.87
900.37	38.13
900.68	38.35
900.99	38.78
901.30	37.91
901.60	38.57
901.91	37.91
902.22	39.22
902.53	38.13
902.83	37.91
903.14	43.13
903.45	45.53
903.76	47.05
904.06	48.13
904.37	46.39
904.68	49.44
904.99	45.31
905.29	47.92
905.60	47.48
905.91	45.31
906.22	45.09
906.52	44.44
906.83	40.31
907.14	37.48
907.44	38.13
907.75	38.35
908.06	38.57
908.36	35.95
908.67	34.43
908.98	34.86
909.28	33.12
909.59	33.34
909.90	32.90
910.20	30.94
910.51	32.25
910.82	32.47
911.12	32.03
911.43	32.47
911.73	35.08
912.04	34.21
912.35	32.47
912.65	32.03
912.96	31.16
913.26	30.29
913.57	32.25
913.88	29.42
914.18	32.03
914.49	30.73
914.79	30.07
915.10	29.20
915.40	29.20
915.71	29.64
916.02	29.85
916.32	30.94
916.63	30.29
916.93	29.64
917.24	28.11
917.54	25.93
917.85	26.80
918.15	28.77
918.46	30.94
918.76	30.07
919.07	30.94
919.37	32.25
919.68	34.21
919.98	33.12
920.29	33.99
920.59	31.38
920.90	35.08
921.20	33.99
921.50	30.29
921.81	34.21
922.11	30.73
922.42	30.29
922.72	31.82
923.03	31.82
923.33	32.47
923.63	30.51
923.94	31.38
924.24	32.03
924.55	31.16
924.85	30.73
925.15	29.64
925.46	28.33
925.76	30.73
926.07	27.89
926.37	27.89
926.67	28.98
926.98	27.68
927.28	27.46
927.58	25.06
927.89	24.62
928.19	24.19
928.49	22.01
928.80	19.82
929.10	19.82
929.40	19.17
929.71	19.39
930.01	19.61
930.31	16.77
930.62	16.99
930.92	15.24
931.22	13.93
931.52	12.84
931.83	11.52
932.13	11.09
932.43	10.00
932.73	9.78
933.04	9.12
933.34	9.56
933.64	10.21
933.94	9.12
934.25	9.78
934.55	8.25
934.85	8.46
935.15	6.06
935.45	6.06
935.76	5.40
936.06	7.37
936.36	7.59
936.66	6.50
936.96	5.40
937.27	4.75
937.57	7.15
937.87	6.72
938.17	7.37
938.47	6.28
938.77	6.93
939.08	7.15
939.38	7.59
939.68	7.59
939.98	8.25
940.28	9.78
940.58	10.21
940.88	8.90
941.18	8.90
941.49	8.90
941.79	8.46
942.09	9.56
942.39	9.78
942.69	9.78
942.99	8.68
943.29	6.93
943.59	6.72
943.89	6.50
944.19	8.25
944.49	8.03
944.79	7.59
945.09	9.12
945.39	8.03
945.70	7.81
946.00	7.59
946.30	7.15
946.60	9.12
946.90	6.72
947.20	6.72
947.50	6.72
947.80	6.28
948.10	6.93
948.40	7.59
948.70	7.81
949.00	8.03
949.30	8.46
949.59	7.59
949.89	7.81
950.19	6.28
950.49	7.59
950.79	6.72
951.09	8.68
951.39	10.00
951.69	9.12
951.99	6.06
952.29	8.03
952.59	6.50
952.89	4.75
953.19	6.06
953.49	6.28
953.78	7.59
954.08	8.46
954.38	7.81
954.68	7.37
954.98	8.03
955.28	7.37
955.58	8.03
955.88	7.37
956.17	7.15
956.47	6.72
956.77	8.03
957.07	6.06
957.37	5.84
957.67	5.62
957.96	8.46
958.26	8.90
958.56	8.68
958.86	8.03
959.16	8.25
959.45	8.90
959.75	8.03
960.05	6.28
960.35	7.15
960.64	5.84
960.94	8.03
961.24	7.81
961.54	7.59
961.83	7.81
962.13	7.59
962.43	8.46
962.73	6.28
963.02	7.59
963.32	8.25
963.62	7.59
963.92	8.46
964.21	8.68
964.51	9.34
964.81	10.00
965.10	10.43
965.40	11.52
965.70	10.00
965.99	7.37
966.29	9.78
966.59	10.21
966.88	9.12
967.18	9.34
967.48	8.68
967.77	8.90
968.07	11.74
968.37	12.40
968.66	11.31
968.96	9.34
969.25	9.56
969.55	10.43
969.85	9.78
970.14	9.56
970.44	10.87
970.73	11.74
971.03	11.74
971.33	11.52
971.62	13.27
971.92	11.96
972.21	10.21
972.51	13.71
972.80	11.74
973.10	11.31
973.40	10.87
973.69	11.09
973.99	10.43
974.28	11.52
974.58	10.00
974.87	8.90
975.17	10.00
975.46	10.43
975.76	10.87
976.05	10.87
976.35	9.56
976.64	9.56
976.94	9.78
977.23	9.56
977.53	10.87
977.82	9.78
978.11	10.00
978.41	9.78
978.70	9.34
979.00	10.00
979.29	9.34
979.59	10.00
979.88	9.78
980.18	8.68
980.47	10.65
980.76	9.56
981.06	8.90
981.35	8.90
981.65	8.46
981.94	9.12
982.23	10.21
982.53	12.62
982.82	10.00
983.11	11.96
983.41	9.56
983.70	10.00
984.00	11.31
984.29	10.65
984.58	10.43
984.88	10.65
985.17	8.90
985.46	8.90
985.76	8.68
986.05	9.56
986.34	9.34
986.63	9.56
986.93	8.90
987.22	10.21
987.51	11.09
987.81	10.43
988.10	9.78
988.39	9.56
988.68	10.87
988.98	11.09
989.27	10.00
989.56	8.46
989.85	8.03
990.15	8.03
990.44	8.25
990.73	10.43
991.02	10.21
991.32	10.87
991.61	7.59
991.90	7.81
992.19	7.37
992.48	9.56
992.78	9.78
993.07	9.56
993.36	9.12
993.65	10.65
993.94	10.00
994.23	8.46
994.53	8.03
994.82	8.46
995.11	9.34
995.40	10.21
995.69	10.00
995.98	9.34
996.27	9.56
996.57	9.12
996.86	10.21
997.15	8.90
997.44	7.59
997.73	8.90
998.02	8.03
998.31	9.78
998.60	7.59
998.89	7.37
999.18	10.00
999.48	9.12
999.77	10.43
1000.06	9.56
1000.35	9.78
1000.64	10.87
1000.93	10.00
1001.22	8.46
1001.51	8.90
1001.80	8.25
1002.09	9.12
1002.38	6.93
1002.67	7.37
1002.96	8.03
1003.25	8.03
1003.54	9.56
1003.83	7.59
1004.12	8.03
1004.41	8.90
1004.70	8.25
1004.99	7.15
1005.28	6.93
1005.57	6.28
1005.86	7.37
1006.15	8.03
1006.44	7.59
1006.72	5.84
1007.01	6.50
1007.30	5.84
1007.59	6.06
1007.88	7.15
1008.17	7.37
1008.46	6.93
1008.75	7.15
1009.04	6.93
1009.33	7.81
1009.62	7.15
1009.90	6.72
1010.19	5.84
1010.48	4.97
1010.77	6.50
1011.06	7.81
1011.35	6.93
1011.64	5.84
1011.92	6.50
1012.21	7.81
1012.50	6.06
1012.79	6.06
1013.08	6.28
1013.37	7.15
1013.65	6.28
1013.94	7.15
1014.23	7.59
1014.52	6.50
1014.80	4.09
1015.09	5.62
1015.38	7.59
1015.67	6.93
1015.96	6.93
1016.24	4.09
1016.53	4.97
1016.82	6.28
1017.11	6.06
1017.39	5.84
1017.68	4.31
1017.97	4.97
1018.25	4.53
1018.54	3.43
1018.83	6.06
1019.12	7.15
1019.40	6.28
1019.69	7.37
1019.98	5.40
1020.26	5.84
1020.55	5.84
1020.84	7.59
1021.12	7.15
1021.41	4.75
1021.70	4.75
1021.98	3.87
1022.27	4.53
1022.56	6.06
1022.84	5.40
1023.13	3.43
1023.42	6.28
1023.70	5.62
1023.99	7.15
1024.27	7.59
1024.56	6.93
1024.85	5.62
1025.13	5.40
1025.42	8.03
1025.70	7.59
1025.99	6.93
1026.27	6.72
1026.56	4.75
1026.85	2.78
1027.13	4.09
1027.42	5.62
1027.70	4.75
1027.99	5.62
1028.27	6.06
1028.56	5.18
1028.84	4.75
>>>>>End Processed Spectral Data<<<<<
