SpectraSuite Data File
++++++++++++++++++++++++++++++++++++
Date: Tue Jun 16 16:59:21 CEST 2015
User: root
Dark Spectrum Present: No
Reference Spectrum Present: No
Number of Sampled Component Spectra: 1
Spectrometers: USB2G14742
Integration Time (usec): 3000 (USB2G14742)
Spectra Averaged: 5 (USB2G14742)
Boxcar Smoothing: 0 (USB2G14742)
Correct for Electrical Dark: Yes (USB2G14742)
Strobe/Lamp Enabled: No (USB2G14742)
Correct for Detector Non-linearity: Yes (USB2G14742)
Correct for Stray Light: No (USB2G14742)
Number of Pixels in Processed Spectrum: 2048
>>>>>Begin Processed Spectral Data<<<<<
339.47	-7.03
339.86	-7.03
340.24	-5.49
340.63	-5.06
341.01	-4.62
341.39	-3.52
341.78	-2.87
342.16	-1.55
342.55	-1.11
342.93	0.20
343.32	1.29
343.70	1.95
344.09	-0.02
344.47	1.08
344.85	2.17
345.24	1.08
345.62	1.95
346.01	3.48
346.39	1.95
346.77	1.08
347.16	1.08
347.54	1.08
347.93	1.73
348.31	0.64
348.69	1.08
349.08	2.39
349.46	-0.24
349.84	-0.02
350.23	-0.02
350.61	1.29
350.99	2.39
351.38	1.51
351.76	1.73
352.14	2.17
352.53	2.83
352.91	1.08
353.29	2.39
353.68	2.17
354.06	2.17
354.44	1.73
354.83	1.95
355.21	1.29
355.59	1.73
355.97	2.83
356.36	2.83
356.74	2.83
357.12	1.95
357.51	3.26
357.89	2.39
358.27	1.95
358.65	3.05
359.04	3.70
359.42	3.05
359.80	3.92
360.18	4.36
360.57	3.92
360.95	2.83
361.33	3.70
361.71	2.61
362.10	1.08
362.48	1.95
362.86	3.26
363.24	3.48
363.62	5.01
364.01	3.05
364.39	1.95
364.77	4.14
365.15	4.80
365.53	5.67
365.91	4.58
366.30	4.14
366.68	4.58
367.06	4.80
367.44	4.14
367.82	4.80
368.20	5.23
368.59	5.45
368.97	5.23
369.35	5.89
369.73	5.67
370.11	5.01
370.49	4.80
370.87	5.67
371.25	3.48
371.64	3.70
372.02	6.55
372.40	5.23
372.78	5.67
373.16	6.33
373.54	4.80
373.92	5.45
374.30	5.45
374.68	6.76
375.06	6.11
375.44	5.45
375.82	4.80
376.21	5.45
376.59	5.89
376.97	6.33
377.35	7.86
377.73	8.30
378.11	9.17
378.49	10.92
378.87	8.95
379.25	7.42
379.63	6.55
380.01	7.20
380.39	8.30
380.77	8.08
381.15	7.42
381.53	8.08
381.91	7.42
382.29	7.64
382.67	6.11
383.05	7.64
383.43	8.08
383.81	8.51
384.19	8.30
384.57	8.73
384.95	8.95
385.33	9.83
385.71	10.26
386.08	9.83
386.46	10.04
386.84	10.70
387.22	10.92
387.60	8.30
387.98	9.17
388.36	9.61
388.74	10.26
389.12	12.01
389.50	11.14
389.88	13.32
390.26	13.54
390.63	12.89
391.01	11.14
391.39	13.98
391.77	15.07
392.15	13.10
392.53	12.89
392.91	11.79
393.29	10.04
393.66	11.36
394.04	11.14
394.42	12.01
394.80	12.01
395.18	12.45
395.56	14.63
395.93	15.29
396.31	15.07
396.69	16.38
397.07	14.85
397.45	15.07
397.83	16.38
398.20	15.94
398.58	20.53
398.96	21.62
399.34	19.22
399.72	22.05
400.09	22.49
400.47	21.62
400.85	24.02
401.23	25.76
401.60	24.24
401.98	25.76
402.36	25.98
402.74	27.07
403.11	25.98
403.49	27.07
403.87	25.11
404.25	26.20
404.62	25.11
405.00	27.51
405.38	26.63
405.75	28.81
406.13	30.12
406.51	27.29
406.89	26.20
407.26	27.29
407.64	30.78
408.02	30.78
408.39	31.65
408.77	31.86
409.15	35.13
409.52	32.95
409.90	31.21
410.28	30.99
410.65	33.39
411.03	35.57
411.41	38.18
411.78	36.22
412.16	36.44
412.54	35.57
412.91	37.96
413.29	39.27
413.66	36.87
414.04	42.31
414.42	37.53
414.79	39.27
415.17	41.01
415.54	40.57
415.92	42.31
416.30	44.70
416.67	44.70
417.05	45.79
417.42	42.53
417.80	42.96
418.18	45.36
418.55	42.31
418.93	43.40
419.30	44.92
419.68	44.70
420.05	44.92
420.43	46.01
420.80	50.57
421.18	53.18
421.55	49.70
421.93	50.14
422.30	48.40
422.68	46.66
423.06	49.05
423.43	49.27
423.81	48.83
424.18	54.05
424.56	57.74
424.93	52.31
425.30	52.31
425.68	55.35
426.05	57.09
426.43	56.87
426.80	56.22
427.18	57.95
427.55	56.87
427.93	52.96
428.30	61.21
428.68	57.95
429.05	56.65
429.43	55.57
429.80	52.53
430.17	51.66
430.55	49.27
430.92	51.01
431.30	58.60
431.67	60.99
432.04	62.94
432.42	64.89
432.79	70.09
433.17	67.06
433.54	69.01
433.91	66.63
434.29	69.44
434.66	70.96
435.03	70.31
435.41	73.34
435.78	74.21
436.16	81.13
436.53	78.97
436.90	81.13
437.28	81.78
437.65	77.89
438.02	75.51
438.40	72.91
438.77	80.27
439.14	79.40
439.52	80.92
439.89	80.70
440.26	80.05
440.63	85.89
441.01	87.83
441.38	87.40
441.75	91.94
442.13	93.66
442.50	91.94
442.87	93.88
443.24	94.53
443.62	95.17
443.99	97.98
444.36	96.90
444.73	93.45
445.11	95.39
445.48	93.66
445.85	95.17
446.22	97.12
446.60	101.86
446.97	105.96
447.34	101.00
447.71	105.10
448.09	108.54
448.46	102.94
448.83	114.57
449.20	102.29
449.57	112.64
449.95	113.28
450.32	113.93
450.69	115.65
451.06	117.59
451.43	120.38
451.80	118.02
452.18	116.08
452.55	111.99
452.92	112.21
453.29	118.66
453.66	115.22
454.03	121.46
454.40	123.18
454.78	121.46
455.15	123.82
455.52	122.32
455.89	126.19
456.26	122.10
456.63	127.26
457.00	123.61
457.37	129.41
457.74	128.12
458.12	130.91
458.49	125.97
458.86	125.54
459.23	130.06
459.60	128.55
459.97	131.13
460.34	133.49
460.71	132.63
461.08	138.64
461.45	140.36
461.82	138.21
462.19	140.57
462.56	136.28
462.93	140.36
463.30	133.49
463.67	131.77
464.04	137.14
464.41	138.64
464.78	137.14
465.15	137.57
465.52	141.22
465.89	143.15
466.26	139.07
466.63	138.43
467.00	143.15
467.37	145.94
467.74	146.36
468.11	146.15
468.48	146.15
468.85	148.72
469.22	152.58
469.59	152.58
469.96	149.15
470.33	150.01
470.70	152.58
471.07	160.71
471.44	154.93
471.81	153.86
472.18	157.50
472.55	156.86
472.91	166.70
473.28	156.22
473.65	159.86
474.02	162.00
474.39	170.55
474.76	169.48
475.13	175.68
475.50	172.68
475.87	167.77
476.23	180.80
476.60	178.66
476.97	176.53
477.34	184.43
477.71	181.65
478.08	179.09
478.45	185.28
478.81	189.12
479.18	189.54
479.55	194.45
479.92	195.09
480.29	200.20
480.65	198.92
481.02	199.98
481.39	197.22
481.76	202.96
482.13	208.50
482.49	205.30
482.86	206.58
483.23	209.77
483.60	209.13
483.97	206.58
484.33	205.73
484.70	211.26
485.07	211.69
485.44	201.90
485.80	191.25
486.17	185.28
486.54	188.90
486.91	189.76
487.27	198.07
487.64	205.09
488.01	210.41
488.38	211.90
488.74	216.15
489.11	217.64
489.48	219.97
489.84	228.04
490.21	228.04
490.58	226.77
490.94	230.59
491.31	226.56
491.68	226.34
492.04	221.46
492.41	227.40
492.78	226.98
493.14	234.62
493.51	229.10
493.88	230.80
494.24	233.98
494.61	243.94
494.98	245.21
495.34	243.52
495.71	239.07
496.08	239.07
496.44	244.58
496.81	247.96
497.17	243.73
497.54	250.50
497.91	238.43
498.27	243.31
498.64	241.82
499.00	242.46
499.37	241.82
499.74	244.36
500.10	240.98
500.47	242.46
500.83	242.88
501.20	242.67
501.56	236.74
501.93	235.04
502.30	241.40
502.66	246.69
503.03	244.58
503.39	245.00
503.76	245.00
504.12	247.96
504.49	249.45
504.85	257.49
505.22	257.49
505.58	264.46
505.95	270.38
506.31	263.83
506.68	263.83
507.04	266.36
507.41	267.42
507.77	264.67
508.14	266.15
508.50	268.69
508.87	273.33
509.23	273.33
509.59	273.75
509.96	277.13
510.32	279.03
510.69	277.98
511.05	281.56
511.42	285.36
511.78	284.51
512.15	289.36
512.51	286.83
512.87	285.57
513.24	292.10
513.60	284.94
513.97	283.88
514.33	288.94
514.69	294.84
515.06	295.47
515.42	292.52
515.79	295.47
516.15	293.36
516.51	277.98
516.88	270.80
517.24	275.02
517.60	280.93
517.97	283.88
518.33	282.41
518.69	293.15
519.06	296.94
519.42	304.94
519.78	309.99
520.15	322.59
520.51	319.23
520.87	321.75
521.24	329.52
521.60	331.20
521.96	334.13
522.33	336.86
522.69	332.88
523.05	331.41
523.41	342.73
523.78	345.45
524.14	352.78
524.50	352.36
524.86	357.80
525.23	357.59
525.59	352.99
525.95	346.29
526.32	343.57
526.68	334.13
527.04	335.18
527.40	347.33
527.76	351.10
528.13	356.54
528.49	368.67
528.85	376.19
529.21	378.27
529.57	378.90
529.94	375.77
530.30	385.79
530.66	388.50
531.02	397.04
531.38	395.17
531.75	389.54
532.11	385.79
532.47	376.40
532.83	378.48
533.19	380.15
533.55	388.08
533.92	384.95
534.28	384.33
534.64	388.08
535.00	399.33
535.36	403.71
535.72	407.04
536.08	402.87
536.44	394.96
536.81	397.67
537.17	395.79
537.53	400.79
537.89	402.04
538.25	399.96
538.61	402.25
538.97	396.62
539.33	398.29
539.69	399.75
540.05	392.67
540.41	387.25
540.78	385.37
541.14	385.99
541.50	391.00
541.86	390.16
542.22	396.83
542.58	400.37
542.94	392.46
543.30	393.71
543.66	396.21
544.02	403.08
544.38	397.46
544.74	400.79
545.10	404.95
545.46	401.00
545.82	407.24
546.18	403.71
546.54	402.04
546.90	401.41
547.26	398.08
547.62	400.17
547.98	403.29
548.34	399.96
548.70	404.33
549.06	403.91
549.42	407.45
549.78	402.66
550.13	406.83
550.49	409.95
550.85	405.99
551.21	398.92
551.57	403.29
551.93	405.99
552.29	402.46
552.65	401.41
553.01	403.91
553.37	398.92
553.73	404.54
554.09	406.62
554.44	409.74
554.80	409.53
555.16	411.82
555.52	405.37
555.88	404.33
556.24	397.67
556.60	395.79
556.95	394.33
557.31	386.41
557.67	387.87
558.03	386.83
558.39	382.45
558.75	382.03
559.10	385.16
559.46	381.61
559.82	374.52
560.18	383.49
560.54	393.29
560.90	389.33
561.25	388.29
561.61	381.82
561.97	385.37
562.33	387.45
562.68	382.03
563.04	388.50
563.40	384.53
563.76	383.70
564.12	387.66
564.47	382.87
564.83	383.70
565.19	382.87
565.55	381.20
565.90	371.80
566.26	368.25
566.62	372.43
566.97	374.10
567.33	371.80
567.69	372.85
568.05	372.64
568.40	363.65
568.76	361.56
569.12	359.26
569.47	357.17
569.83	354.03
570.19	356.13
570.54	353.61
570.90	351.52
571.26	356.13
571.61	356.33
571.97	354.66
572.33	362.40
572.68	359.68
573.04	361.98
573.40	356.96
573.75	357.80
574.11	358.01
574.47	355.50
574.82	351.73
575.18	344.61
575.53	346.71
575.89	352.36
576.25	344.40
576.60	344.61
576.96	344.61
577.31	345.66
577.67	344.82
578.03	340.63
578.38	343.77
578.74	336.86
579.09	345.24
579.45	343.57
579.80	347.75
580.16	342.31
580.51	343.15
580.87	344.40
581.23	342.31
581.58	343.57
581.94	344.40
582.29	347.54
582.65	343.98
583.00	349.22
583.36	346.92
583.71	348.38
584.07	347.13
584.42	344.61
584.78	344.82
585.13	337.91
585.49	331.41
585.84	333.92
586.20	329.31
586.55	334.34
586.91	336.44
587.26	323.64
587.61	325.95
587.97	323.64
588.32	310.41
588.68	291.05
589.03	287.04
589.39	276.71
589.74	282.83
590.09	283.67
590.45	293.15
590.80	296.31
591.16	296.52
591.51	296.31
591.86	290.41
592.22	301.57
592.57	293.79
592.93	299.68
593.28	298.42
593.63	304.73
593.99	298.00
594.34	296.52
594.69	292.10
595.05	296.52
595.40	294.84
595.76	297.37
596.11	304.52
596.46	302.21
596.82	302.00
597.17	303.47
597.52	301.36
597.87	303.47
598.23	304.10
598.58	303.26
598.93	305.36
599.29	306.41
599.64	302.84
599.99	306.41
600.35	305.78
600.70	304.31
601.05	301.57
601.40	301.79
601.76	299.68
602.11	296.94
602.46	305.57
602.81	302.63
603.17	308.31
603.52	306.62
603.87	309.99
604.22	310.83
604.58	311.04
604.93	305.99
605.28	307.25
605.63	304.10
605.98	306.20
606.34	302.42
606.69	304.73
607.04	300.73
607.39	300.10
607.74	304.73
608.10	296.52
608.45	298.84
608.80	296.94
609.15	301.36
609.50	293.79
609.85	294.21
610.21	291.68
610.56	288.73
610.91	298.63
611.26	295.68
611.61	295.05
611.96	289.15
612.31	287.89
612.67	283.46
613.02	281.98
613.37	282.62
613.72	281.56
614.07	281.77
614.42	287.04
614.77	278.61
615.12	284.51
615.47	273.75
615.82	275.23
616.17	275.65
616.53	271.01
616.88	272.91
617.23	270.38
617.58	277.98
617.93	275.23
618.28	275.87
618.63	281.35
618.98	273.54
619.33	273.75
619.68	279.24
620.03	276.71
620.38	280.51
620.73	279.66
621.08	273.33
621.43	272.70
621.78	274.81
622.13	271.22
622.48	272.07
622.83	268.48
623.18	268.69
623.53	264.88
623.88	266.58
624.23	262.98
624.58	264.88
624.93	262.14
625.28	262.35
625.63	261.50
625.98	258.97
626.32	262.14
626.67	262.77
627.02	257.49
627.37	258.12
627.72	251.35
628.07	252.62
628.42	254.31
628.77	254.95
629.12	252.41
629.47	259.39
629.82	249.87
630.16	251.77
630.51	249.87
630.86	255.37
631.21	253.68
631.56	250.29
631.91	251.77
632.26	255.37
632.60	254.10
632.95	256.64
633.30	252.62
633.65	256.01
634.00	253.68
634.35	260.66
634.69	256.43
635.04	254.31
635.39	255.16
635.74	248.81
636.09	249.02
636.43	253.89
636.78	257.27
637.13	251.56
637.48	255.79
637.83	259.18
638.17	256.64
638.52	255.37
638.87	249.66
639.22	252.20
639.56	249.87
639.91	248.39
640.26	246.27
640.61	240.13
640.95	241.61
641.30	239.28
641.65	240.55
642.00	238.01
642.34	236.31
642.69	236.74
643.04	234.83
643.38	231.22
643.73	238.01
644.08	233.13
644.43	229.53
644.77	228.04
645.12	226.34
645.47	222.10
645.81	222.52
646.16	217.21
646.51	211.26
646.85	214.66
647.20	209.56
647.54	206.79
647.89	203.39
648.24	206.37
648.58	201.05
648.93	201.05
649.28	199.98
649.62	201.26
649.97	197.22
650.31	199.35
650.66	200.62
651.01	201.26
651.35	199.98
651.70	201.26
652.04	197.85
652.39	200.20
652.74	197.85
653.08	194.02
653.43	198.92
653.77	203.60
654.12	197.64
654.46	196.79
654.81	191.25
655.15	181.44
655.50	181.44
655.85	170.12
656.19	166.70
656.54	166.91
656.88	168.84
657.23	172.68
657.57	178.24
657.92	179.52
658.26	185.07
658.61	186.35
658.95	186.77
659.30	186.56
659.64	186.13
659.98	183.57
660.33	186.99
660.67	186.99
661.02	182.93
661.36	183.36
661.71	184.64
662.05	180.59
662.40	185.28
662.74	184.85
663.09	180.59
663.43	181.23
663.77	179.73
664.12	175.46
664.46	179.30
664.81	177.38
665.15	172.26
665.49	171.40
665.84	169.48
666.18	174.18
666.53	168.41
666.87	172.90
667.21	168.41
667.56	170.55
667.90	167.34
668.24	166.91
668.59	164.99
668.93	167.13
669.27	167.77
669.62	165.20
669.96	162.00
670.30	163.07
670.65	163.28
670.99	158.79
671.33	157.29
671.68	161.14
672.02	159.43
672.36	159.00
672.71	161.78
673.05	159.86
673.39	157.72
673.73	159.00
674.08	156.22
674.42	153.65
674.76	159.21
675.11	152.79
675.45	159.00
675.79	156.65
676.13	156.86
676.48	153.43
676.82	153.43
677.16	153.65
677.50	157.29
677.84	154.08
678.19	154.93
678.53	151.51
678.87	157.50
679.21	155.79
679.55	151.94
679.90	151.94
680.24	151.51
680.58	153.01
680.92	153.01
681.26	156.86
681.61	150.22
681.95	154.72
682.29	150.86
682.63	151.51
682.97	151.29
683.31	150.44
683.65	150.86
684.00	151.51
684.34	152.36
684.68	150.01
685.02	157.93
685.36	150.44
685.70	152.79
686.04	147.86
686.38	143.79
686.73	130.27
687.07	118.66
687.41	121.03
687.75	125.33
688.09	130.06
688.43	133.49
688.77	136.07
689.11	136.71
689.45	138.00
689.79	139.07
690.13	143.15
690.47	148.72
690.81	146.79
691.15	155.15
691.49	156.00
691.83	160.50
692.17	154.93
692.51	164.13
692.85	160.28
693.19	162.42
693.53	160.28
693.87	162.21
694.21	162.42
694.55	167.77
694.89	164.99
695.23	172.47
695.57	170.98
695.91	180.59
696.25	183.79
696.59	186.35
696.93	195.30
697.27	198.28
697.61	195.30
697.95	197.00
698.29	201.05
698.63	199.56
698.97	197.22
699.31	200.41
699.65	197.22
699.99	198.71
700.32	196.58
700.66	199.77
701.00	202.54
701.34	204.67
701.68	201.47
702.02	203.39
702.36	206.58
702.70	209.13
703.04	215.94
703.37	219.12
703.71	220.19
704.05	229.10
704.39	227.40
704.73	231.65
705.07	232.28
705.40	228.68
705.74	233.77
706.08	233.13
706.42	235.04
706.76	241.40
707.10	237.58
707.43	240.55
707.77	239.07
708.11	243.73
708.45	244.58
708.78	239.92
709.12	249.45
709.46	248.81
709.80	245.42
710.14	246.69
710.47	249.66
710.81	250.93
711.15	252.41
711.49	256.64
711.82	253.68
712.16	252.62
712.50	256.22
712.83	253.68
713.17	256.01
713.51	254.10
713.85	254.10
714.18	252.62
714.52	253.04
714.86	250.72
715.19	251.77
715.53	251.14
715.87	240.55
716.20	235.04
716.54	217.21
716.88	203.82
717.21	195.72
717.55	191.04
717.89	183.57
718.22	174.61
718.56	170.76
718.90	169.48
719.23	169.91
719.57	165.42
719.91	164.56
720.24	173.97
720.58	184.85
720.91	193.59
721.25	207.43
721.59	217.00
721.92	225.49
722.26	222.10
722.59	221.04
722.93	214.24
723.27	207.43
723.60	201.26
723.94	198.28
724.27	192.10
724.61	193.59
724.94	194.45
725.28	191.04
725.61	191.89
725.95	193.38
726.28	201.05
726.62	196.15
726.96	195.94
727.29	190.82
727.63	193.81
727.96	198.49
728.30	201.05
728.63	198.28
728.97	193.38
729.30	201.90
729.63	202.54
729.97	202.96
730.30	200.20
730.64	201.90
730.97	203.82
731.31	206.58
731.64	213.81
731.98	222.73
732.31	228.04
732.65	231.01
732.98	235.46
733.31	243.94
733.65	247.54
733.98	254.53
734.32	247.75
734.65	253.68
734.98	251.56
735.32	252.83
735.65	252.20
735.99	246.06
736.32	250.93
736.65	247.54
736.99	254.31
737.32	256.43
737.66	256.01
737.99	257.91
738.32	255.79
738.66	252.83
738.99	260.45
739.32	260.66
739.66	256.43
739.99	260.87
740.32	264.25
740.66	259.60
740.99	262.98
741.32	259.18
741.65	258.54
741.99	262.98
742.32	266.58
742.65	267.21
742.99	269.11
743.32	271.01
743.65	270.38
743.98	271.01
744.32	269.74
744.65	271.01
744.98	270.80
745.32	274.39
745.65	273.54
745.98	274.60
746.31	273.97
746.64	274.39
746.98	274.81
747.31	271.64
747.64	264.04
747.97	274.60
748.31	270.80
748.64	269.32
748.97	271.01
749.30	269.11
749.63	266.36
749.96	261.93
750.30	267.00
750.63	264.25
750.96	263.83
751.29	265.52
751.62	264.04
751.95	261.93
752.29	261.71
752.62	261.08
752.95	264.25
753.28	263.62
753.61	259.18
753.94	263.62
754.27	259.39
754.60	262.56
754.94	257.49
755.27	259.60
755.60	259.18
755.93	256.64
756.26	255.58
756.59	257.27
756.92	253.04
757.25	253.47
757.58	251.56
757.91	252.83
758.24	245.21
758.57	238.01
758.90	224.22
759.24	188.27
759.57	153.01
759.90	120.17
760.23	95.82
760.56	78.10
760.89	72.48
761.22	77.45
761.55	91.29
761.88	92.80
762.21	92.80
762.54	93.23
762.87	91.72
763.20	89.13
763.53	94.10
763.86	98.84
764.19	104.88
764.52	112.64
764.85	117.59
765.17	127.91
765.50	132.85
765.83	143.15
766.16	158.36
766.49	163.92
766.82	179.52
767.15	183.79
767.48	190.61
767.81	201.47
768.14	204.45
768.47	204.45
768.80	209.56
769.13	210.84
769.45	212.32
769.78	218.27
770.11	214.66
770.44	217.00
770.77	210.84
771.10	217.64
771.43	217.42
771.75	219.76
772.08	220.40
772.41	218.06
772.74	214.02
773.07	214.02
773.40	221.04
773.73	217.00
774.05	215.30
774.38	213.81
774.71	212.32
775.04	211.26
775.37	211.69
775.69	210.20
776.02	208.28
776.35	209.13
776.68	206.58
777.00	209.35
777.33	204.45
777.66	199.56
777.99	201.47
778.32	203.18
778.64	200.20
778.97	201.05
779.30	200.62
779.62	201.05
779.95	197.85
780.28	200.20
780.61	195.09
780.93	194.02
781.26	193.17
781.59	194.45
781.92	194.87
782.24	191.89
782.57	194.66
782.90	191.04
783.22	186.77
783.55	191.04
783.88	185.49
784.20	183.15
784.53	185.49
784.86	186.13
785.18	183.36
785.51	184.43
785.84	178.45
786.16	178.24
786.49	178.02
786.81	177.17
787.14	176.74
787.47	173.11
787.79	173.97
788.12	172.90
788.44	172.04
788.77	166.70
789.10	163.92
789.42	161.14
789.75	163.49
790.07	163.07
790.40	162.00
790.73	160.28
791.05	159.43
791.38	160.50
791.70	156.43
792.03	158.57
792.35	157.29
792.68	154.51
793.00	160.28
793.33	162.00
793.65	160.28
793.98	158.57
794.30	155.58
794.63	154.93
794.95	154.72
795.28	155.36
795.60	153.01
795.93	152.36
796.25	149.36
796.58	151.08
796.90	150.65
797.23	148.51
797.55	152.79
797.88	151.29
798.20	154.08
798.53	157.29
798.85	150.86
799.17	151.08
799.50	151.72
799.82	147.86
800.15	146.15
800.47	144.22
800.80	145.08
801.12	140.57
801.44	142.72
801.77	144.43
802.09	142.50
802.42	135.64
802.74	137.79
803.06	137.36
803.39	137.36
803.71	135.42
804.03	135.42
804.36	137.36
804.68	135.85
805.00	136.28
805.33	139.07
805.65	142.08
805.97	133.71
806.30	135.85
806.62	137.36
806.94	135.85
807.27	138.21
807.59	134.78
807.91	130.70
808.24	134.99
808.56	132.85
808.88	131.13
809.21	129.84
809.53	126.40
809.85	124.25
810.17	124.90
810.50	127.05
810.82	120.38
811.14	119.31
811.46	116.30
811.79	115.22
812.11	115.65
812.43	110.91
812.75	109.62
813.07	99.27
813.40	97.98
813.72	100.78
814.04	96.04
814.36	92.15
814.69	89.13
815.01	83.73
815.33	87.40
815.65	79.18
815.97	78.32
816.29	78.97
816.62	78.10
816.94	78.75
817.26	78.32
817.58	79.18
817.90	77.02
818.22	77.89
818.54	78.10
818.87	81.78
819.19	81.78
819.51	82.00
819.83	83.29
820.15	84.16
820.47	87.40
820.79	89.34
821.11	92.37
821.43	93.02
821.76	92.15
822.08	86.54
822.40	76.81
822.72	71.83
823.04	67.93
823.36	71.39
823.68	71.83
824.00	77.24
824.32	82.86
824.64	85.24
824.96	88.05
825.28	83.51
825.60	87.18
825.92	88.05
826.24	89.34
826.56	88.05
826.88	86.32
827.20	88.70
827.52	80.92
827.84	81.13
828.16	81.78
828.48	81.35
828.80	79.83
829.12	82.65
829.44	79.40
829.76	79.62
830.08	81.56
830.40	84.16
830.72	83.29
831.04	80.05
831.36	84.59
831.68	85.02
832.00	84.16
832.31	80.92
832.63	82.43
832.95	79.40
833.27	76.59
833.59	79.18
833.91	85.67
834.23	85.02
834.55	86.10
834.87	87.18
835.19	86.54
835.50	84.81
835.82	88.26
836.14	88.05
836.46	88.70
836.78	87.40
837.10	90.42
837.41	89.78
837.73	90.21
838.05	88.48
838.37	90.21
838.69	89.56
839.01	90.42
839.32	92.37
839.64	89.13
839.96	88.91
840.28	90.64
840.60	91.50
840.91	86.97
841.23	86.75
841.55	90.21
841.87	89.99
842.18	93.66
842.50	87.40
842.82	88.70
843.14	89.13
843.45	88.48
843.77	88.70
844.09	89.13
844.41	88.70
844.72	88.91
845.04	88.26
845.36	91.50
845.67	87.62
845.99	92.15
846.31	87.40
846.63	86.97
846.94	88.48
847.26	86.97
847.58	86.32
847.89	87.40
848.21	87.62
848.53	87.83
848.84	86.32
849.16	88.26
849.48	83.94
849.79	81.56
850.11	81.35
850.42	86.10
850.74	85.67
851.06	84.59
851.37	85.89
851.69	82.00
852.00	83.29
852.32	85.89
852.64	84.16
852.95	81.13
853.27	76.59
853.58	76.81
853.90	75.72
854.22	73.13
854.53	74.21
854.85	75.72
855.16	75.07
855.48	73.77
855.79	80.48
856.11	75.51
856.42	78.97
856.74	80.92
857.05	77.45
857.37	80.48
857.68	80.92
858.00	79.40
858.31	78.97
858.63	83.94
858.94	78.75
859.26	80.27
859.57	81.35
859.89	77.67
860.20	79.18
860.52	77.02
860.83	79.40
861.15	77.24
861.46	77.45
861.78	76.16
862.09	77.02
862.41	74.64
862.72	78.75
863.03	78.32
863.35	77.89
863.66	74.86
863.98	74.64
864.29	75.07
864.60	75.07
864.92	74.42
865.23	73.34
865.55	70.53
865.86	67.71
866.17	69.66
866.49	63.38
866.80	67.28
867.11	64.68
867.43	69.44
867.74	72.04
868.06	69.23
868.37	69.44
868.68	66.84
869.00	71.61
869.31	70.74
869.62	67.49
869.93	70.74
870.25	68.58
870.56	68.79
870.87	68.58
871.19	70.53
871.50	69.23
871.81	70.09
872.13	69.66
872.44	70.31
872.75	67.28
873.06	67.49
873.38	65.76
873.69	68.79
874.00	65.76
874.31	65.11
874.63	64.24
874.94	64.24
875.25	62.07
875.56	64.03
875.87	66.19
876.19	62.07
876.50	61.86
876.81	63.81
877.12	57.95
877.43	59.26
877.75	61.86
878.06	57.95
878.37	62.51
878.68	61.64
878.99	59.91
879.30	60.34
879.62	59.91
879.93	57.09
880.24	58.82
880.55	57.95
880.86	57.09
881.17	55.57
881.48	56.00
881.80	54.70
882.11	56.43
882.42	57.74
882.73	57.30
883.04	57.09
883.35	57.95
883.66	56.87
883.97	58.17
884.28	56.87
884.59	57.74
884.90	54.70
885.21	56.00
885.53	54.70
885.84	52.96
886.15	52.09
886.46	54.48
886.77	52.53
887.08	53.61
887.39	51.66
887.70	52.53
888.01	55.35
888.32	55.57
888.63	53.40
888.94	53.40
889.25	53.61
889.56	54.70
889.87	51.66
890.18	53.18
890.49	52.31
890.80	53.61
891.11	53.18
891.42	51.44
891.73	52.96
892.04	51.88
892.34	50.14
892.65	50.35
892.96	49.49
893.27	47.53
893.58	46.88
893.89	45.36
894.20	46.01
894.51	45.14
894.82	42.53
895.13	39.27
895.44	37.96
895.74	38.61
896.05	36.00
896.36	37.31
896.67	34.26
896.98	33.61
897.29	34.70
897.60	34.04
897.91	32.30
898.21	34.70
898.52	33.17
898.83	31.43
899.14	27.07
899.45	26.85
899.76	29.69
900.06	29.47
900.37	28.16
900.68	28.81
900.99	29.69
901.30	29.03
901.60	27.72
901.91	25.76
902.22	28.38
902.53	29.69
902.83	29.25
903.14	30.56
903.45	30.56
903.76	32.95
904.06	34.48
904.37	33.82
904.68	33.17
904.99	32.52
905.29	32.95
905.60	35.13
905.91	32.74
906.22	30.78
906.52	30.56
906.83	30.78
907.14	29.25
907.44	27.94
907.75	27.51
908.06	25.11
908.36	26.63
908.67	28.60
908.98	25.11
909.28	24.89
909.59	26.63
909.90	25.76
910.20	26.42
910.51	26.63
910.82	26.20
911.12	25.11
911.43	24.24
911.73	24.45
912.04	24.67
912.35	24.89
912.65	23.58
912.96	25.11
913.26	24.45
913.57	20.75
913.88	23.80
914.18	24.45
914.49	23.58
914.79	22.49
915.10	22.71
915.40	21.62
915.71	20.96
916.02	22.05
916.32	21.18
916.63	22.05
916.93	23.80
917.24	21.40
917.54	20.96
917.85	21.18
918.15	20.96
918.46	22.49
918.76	24.02
919.07	22.27
919.37	22.27
919.68	22.49
919.98	26.20
920.29	27.51
920.59	26.63
920.90	26.20
921.20	25.33
921.50	24.24
921.81	24.89
922.11	24.24
922.42	24.24
922.72	22.27
923.03	24.67
923.33	24.02
923.63	21.84
923.94	22.05
924.24	23.58
924.55	22.27
924.85	22.49
925.15	22.49
925.46	21.18
925.76	21.40
926.07	22.27
926.37	21.84
926.67	20.53
926.98	24.02
927.28	20.96
927.58	19.87
927.89	17.91
928.19	17.03
928.49	18.13
928.80	18.34
929.10	16.16
929.40	14.20
929.71	13.54
930.01	14.20
930.31	13.54
930.62	14.20
930.92	11.36
931.22	11.36
931.52	11.14
931.83	9.17
932.13	8.30
932.43	8.51
932.73	6.33
933.04	8.30
933.34	5.89
933.64	6.33
933.94	7.42
934.25	6.55
934.55	5.01
934.85	6.33
935.15	5.01
935.45	5.67
935.76	4.58
936.06	4.58
936.36	5.45
936.66	5.45
936.96	5.67
937.27	6.11
937.57	6.33
937.87	5.01
938.17	5.67
938.47	6.11
938.77	6.76
939.08	6.55
939.38	6.11
939.68	8.08
939.98	7.64
940.28	6.55
940.58	5.45
940.88	7.64
941.18	9.83
941.49	7.64
941.79	7.42
942.09	7.86
942.39	9.39
942.69	7.86
942.99	6.76
943.29	7.64
943.59	7.64
943.89	6.33
944.19	4.58
944.49	5.23
944.79	7.42
945.09	6.76
945.39	5.89
945.70	6.55
946.00	5.45
946.30	6.11
946.60	5.01
946.90	8.30
947.20	7.42
947.50	8.30
947.80	8.08
948.10	8.08
948.40	8.08
948.70	7.86
949.00	9.83
949.30	7.64
949.59	7.20
949.89	5.89
950.19	6.76
950.49	6.76
950.79	6.76
951.09	6.55
951.39	5.89
951.69	6.55
951.99	5.67
952.29	6.76
952.59	5.67
952.89	4.80
953.19	5.67
953.49	6.11
953.78	6.11
954.08	6.11
954.38	6.55
954.68	6.33
954.98	6.55
955.28	6.76
955.58	6.98
955.88	6.11
956.17	7.42
956.47	8.08
956.77	8.30
957.07	8.51
957.37	5.67
957.67	6.98
957.96	7.64
958.26	8.51
958.56	9.39
958.86	9.17
959.16	8.30
959.45	6.55
959.75	4.80
960.05	6.33
960.35	7.64
960.64	6.76
960.94	6.76
961.24	6.98
961.54	6.76
961.83	7.64
962.13	7.86
962.43	8.08
962.73	8.95
963.02	8.08
963.32	6.76
963.62	6.11
963.92	6.55
964.21	7.64
964.51	6.98
964.81	6.55
965.10	6.55
965.40	8.95
965.70	8.95
965.99	8.08
966.29	8.30
966.59	8.51
966.88	9.39
967.18	8.08
967.48	6.55
967.77	7.42
968.07	7.64
968.37	8.95
968.66	8.73
968.96	9.83
969.25	9.61
969.55	6.98
969.85	8.08
970.14	9.17
970.44	10.48
970.73	9.61
971.03	8.73
971.33	8.95
971.62	10.48
971.92	11.36
972.21	7.86
972.51	9.17
972.80	9.39
973.10	9.83
973.40	9.39
973.69	6.98
973.99	7.42
974.28	9.83
974.58	9.61
974.87	9.61
975.17	9.17
975.46	10.48
975.76	10.04
976.05	8.95
976.35	9.17
976.64	8.08
976.94	8.73
977.23	8.73
977.53	7.86
977.82	8.51
978.11	8.51
978.41	7.42
978.70	7.86
979.00	7.42
979.29	7.86
979.59	8.73
979.88	6.98
980.18	7.64
980.47	6.98
980.76	7.42
981.06	6.76
981.35	7.20
981.65	10.04
981.94	8.95
982.23	7.42
982.53	8.08
982.82	5.67
983.11	7.42
983.41	9.17
983.70	8.08
984.00	6.76
984.29	8.08
984.58	7.64
984.88	7.86
985.17	7.86
985.46	6.33
985.76	7.86
986.05	8.08
986.34	7.86
986.63	7.42
986.93	7.86
987.22	9.17
987.51	9.17
987.81	9.17
988.10	9.17
988.39	9.39
988.68	8.30
988.98	8.51
989.27	6.98
989.56	8.73
989.85	10.04
990.15	8.08
990.44	8.30
990.73	8.08
991.02	6.33
991.32	7.86
991.61	7.42
991.90	6.33
992.19	7.42
992.48	8.51
992.78	7.86
993.07	7.86
993.36	6.76
993.65	8.30
993.94	8.30
994.23	7.20
994.53	6.11
994.82	8.08
995.11	9.83
995.40	9.17
995.69	8.95
995.98	8.73
996.27	6.98
996.57	7.20
996.86	6.76
997.15	7.20
997.44	6.11
997.73	6.33
998.02	6.98
998.31	8.30
998.60	9.39
998.89	5.89
999.18	6.55
999.48	6.98
999.77	5.45
1000.06	6.76
1000.35	7.20
1000.64	7.86
1000.93	6.98
1001.22	6.11
1001.51	6.33
1001.80	5.89
1002.09	5.89
1002.38	6.11
1002.67	6.55
1002.96	6.33
1003.25	6.55
1003.54	6.55
1003.83	6.11
1004.12	5.89
1004.41	6.55
1004.70	8.95
1004.99	8.08
1005.28	6.11
1005.57	6.11
1005.86	6.55
1006.15	6.76
1006.44	5.67
1006.72	6.76
1007.01	7.42
1007.30	6.76
1007.59	7.42
1007.88	5.45
1008.17	7.20
1008.46	6.98
1008.75	7.64
1009.04	6.11
1009.33	5.45
1009.62	5.45
1009.90	6.11
1010.19	6.11
1010.48	6.76
1010.77	6.11
1011.06	5.23
1011.35	5.45
1011.64	6.11
1011.92	6.11
1012.21	4.58
1012.50	3.70
1012.79	5.23
1013.08	5.45
1013.37	5.01
1013.65	3.92
1013.94	5.89
1014.23	6.76
1014.52	5.01
1014.80	3.92
1015.09	4.80
1015.38	4.80
1015.67	5.23
1015.96	6.11
1016.24	5.01
1016.53	4.58
1016.82	4.36
1017.11	5.45
1017.39	5.89
1017.68	5.23
1017.97	5.01
1018.25	4.58
1018.54	4.14
1018.83	5.89
1019.12	4.36
1019.40	5.01
1019.69	5.45
1019.98	4.36
1020.26	4.80
1020.55	4.58
1020.84	4.36
1021.12	3.05
1021.41	3.48
1021.70	5.89
1021.98	5.67
1022.27	5.89
1022.56	6.11
1022.84	5.45
1023.13	5.45
1023.42	5.89
1023.70	5.23
1023.99	3.92
1024.27	4.58
1024.56	4.58
1024.85	3.92
1025.13	5.45
1025.42	6.55
1025.70	5.45
1025.99	4.80
1026.27	4.80
1026.56	3.48
1026.85	5.01
1027.13	5.89
1027.42	5.01
1027.70	4.36
1027.99	3.05
1028.27	3.48
1028.56	4.80
1028.84	4.36
>>>>>End Processed Spectral Data<<<<<
